Name des Datensatzes:	<3>
Wiederholrate [ns]:	19.580
Zeit Shift [ns] (fest):	0.000
Offset (fest):	3.549

Komponente 1
tau [ns]:	6.011265
A:	0.024447
%:	100.000000
f:	1.000000

t_irf	irf	t	daten	fit	res
[ns]	counts (offset korrigiert)	[ns]			counts 
1.220703	-0.256098	1.684570	121.000000	110.225381	0.979511
1.245117	1.743902	1.708984	114.000000	109.786667	0.394615
1.269531	2.743902	1.733398	122.000000	109.324976	1.147543
1.293945	1.743902	1.757812	101.000000	108.840403	-0.780149
1.318359	1.743902	1.782227	105.000000	108.382548	-0.330103
1.342773	-1.256098	1.806641	114.000000	108.000811	0.561876
1.367187	-0.256098	1.831055	123.000000	107.595867	1.388944
1.391602	0.743902	1.855469	110.000000	107.118302	0.274759
1.416016	-1.256098	1.879883	129.000000	106.741689	1.959735
1.440430	0.743902	1.904297	114.000000	106.292340	0.721888
1.464844	-2.256098	1.928711	100.000000	105.919075	-0.591907
1.489258	-1.256098	1.953125	116.000000	105.572076	0.968208
1.513672	1.743902	1.977539	92.000000	105.127468	-1.368633
1.538086	2.743902	2.001953	99.000000	104.659908	-0.568842
1.562500	0.743902	2.026367	87.000000	104.342767	-1.859340
1.586914	-0.256098	2.050781	106.000000	103.927896	0.201261
1.611328	1.743902	2.075195	112.000000	103.514706	0.801785
1.635742	-0.256098	2.099609	110.000000	103.127945	0.655225
1.660156	-1.256098	2.124023	93.000000	102.767505	-1.012843
1.684570	-0.256098	2.148437	93.000000	102.284756	-0.962784
1.708984	-0.256098	2.172852	93.000000	101.853472	-0.918062
1.733398	-1.256098	2.197266	97.000000	101.399183	-0.446669
1.757812	-2.256098	2.221680	115.000000	101.020996	1.303549
1.782227	-1.256098	2.246094	132.000000	100.570080	2.735623
1.806641	1.743902	2.270508	100.000000	100.244762	-0.024476
1.831055	0.743902	2.294922	103.000000	99.871254	0.308285
1.855469	-2.256098	2.319336	108.000000	99.524014	0.815602
1.879883	1.743902	2.343750	101.000000	99.178182	0.181278
1.904297	-1.256098	2.368164	101.000000	98.808997	0.218013
1.928711	1.743902	2.392578	124.000000	98.565078	2.284123
1.953125	2.743902	2.416992	81.000000	98.396410	-1.932934
1.977539	-1.256098	2.441406	86.000000	98.352196	-1.331972
2.001953	-2.256098	2.465820	121.000000	98.481438	2.047142
2.026367	3.743902	2.490234	95.000000	99.006219	-0.411029
2.050781	-0.256098	2.514648	107.000000	99.578382	0.717475
2.075195	-0.256098	2.539062	95.000000	100.717566	-0.586610
2.099609	0.743902	2.563477	109.000000	102.545243	0.618254
2.124023	1.743902	2.587891	125.000000	104.316005	1.850033
2.148437	-3.256098	2.612305	108.000000	106.648930	0.130007
2.172852	-1.256098	2.636719	115.000000	109.442725	0.518219
2.197266	-2.256098	2.661133	125.000000	114.948130	0.899067
2.221680	0.743902	2.685547	126.000000	124.886932	0.099160
2.246094	-2.256098	2.709961	147.000000	143.721627	0.270396
2.270508	2.743902	2.734375	156.000000	174.807448	-1.505801
2.294922	0.743902	2.758789	250.000000	227.055670	1.451127
2.319336	1.743902	2.783203	296.000000	305.331308	-0.542371
2.343750	1.743902	2.807617	376.000000	410.593289	-1.784013
2.368164	0.743902	2.832031	540.000000	540.974703	-0.041945
2.392578	5.743902	2.856445	688.000000	691.249671	-0.123893
2.416992	8.743902	2.880859	855.000000	848.713045	0.215009
2.441406	13.743902	2.905273	1110.000000	1006.602617	3.103474
2.465820	20.743902	2.929687	1239.000000	1164.174040	2.125772
2.490234	36.743902	2.954102	1379.000000	1306.056401	1.964287
2.514648	38.743902	2.978516	1539.000000	1431.941982	2.728977
2.539062	61.743902	3.002930	1597.000000	1544.791832	1.306430
2.563477	89.743902	3.027344	1718.000000	1639.881274	1.884706
2.587891	87.743902	3.051758	1832.000000	1724.040122	2.522317
2.612305	110.743902	3.076172	1906.000000	1793.228278	2.583085
2.636719	129.743902	3.100586	1985.000000	1847.679698	3.082155
2.661133	239.743902	3.125000	2019.000000	1891.588021	2.835581
2.685547	419.743902	3.149414	1930.000000	1923.436482	0.149403
2.709961	780.743902	3.173828	2028.000000	1947.605901	1.785214
2.734375	1278.743902	3.198242	2035.000000	1965.686903	1.536502
2.758789	2138.743902	3.222656	2014.000000	1977.877441	0.804913
2.783203	3198.743902	3.247070	2031.000000	1984.721225	1.026897
2.807617	4301.743902	3.271484	1979.000000	1987.923193	-0.200585
2.832031	5333.743902	3.295898	2002.000000	1988.933835	0.292022
2.856445	6158.743902	3.320312	2099.000000	1989.098747	2.398813
2.880859	6473.743902	3.344727	1976.000000	1987.802508	-0.265510
2.905273	6516.743902	3.369141	2005.000000	1984.778745	0.451597
2.929687	6529.743902	3.393555	2082.000000	1980.752327	2.218936
2.954102	5921.743902	3.417969	2052.000000	1976.469935	1.667367
2.978516	5298.743902	3.442383	2037.000000	1971.858345	1.443322
3.002930	4792.743902	3.466797	1962.000000	1967.017907	-0.113285
3.027344	4093.743902	3.491211	2027.000000	1962.048564	1.442653
3.051758	3667.743902	3.515625	2103.000000	1956.678545	3.190718
3.076172	3076.743902	3.540039	1989.000000	1950.859967	0.855192
3.100586	2492.743902	3.564453	1966.000000	1945.362020	0.465453
3.125000	2075.743902	3.588867	1940.000000	1939.515048	0.011010
3.149414	1595.743902	3.613281	1958.000000	1933.988821	0.542634
3.173828	1290.743902	3.637695	1911.000000	1927.791883	-0.384122
3.198242	1048.743902	3.662109	1997.000000	1922.313172	1.671302
3.222656	813.743902	3.686523	1908.000000	1916.584374	-0.196526
3.247070	599.743902	3.710937	1927.000000	1910.581749	0.374012
3.271484	453.743902	3.735352	1914.000000	1904.727222	0.211953
3.295898	365.743902	3.759766	1940.000000	1899.094457	0.928713
3.320312	331.743902	3.784180	1950.000000	1893.682553	1.275339
3.344727	272.743902	3.808594	1896.000000	1887.723244	0.190082
3.369141	202.743902	3.833008	1871.000000	1882.060382	-0.255701
3.393555	161.743902	3.857422	1907.000000	1876.866044	0.690050
3.417969	150.743902	3.881836	1959.000000	1871.519481	1.976488
3.442383	136.743902	3.906250	1805.000000	1866.293605	-1.442702
3.466797	126.743902	3.930664	1838.000000	1861.955298	-0.558765
3.491211	120.743902	3.955078	1836.000000	1857.238512	-0.495664
3.515625	103.743902	3.979492	1818.000000	1852.540844	-0.810095
3.540039	84.743902	4.003906	1885.000000	1847.936478	0.853672
3.564453	96.743902	4.028320	1898.000000	1843.053726	1.261218
3.588867	81.743902	4.052734	1817.000000	1837.893718	-0.490160
3.613281	93.743902	4.077148	1774.000000	1832.507085	-1.389094
3.637695	65.743902	4.101562	1849.000000	1827.365070	0.503138
3.662109	93.743902	4.125977	1817.000000	1821.946849	-0.116052
3.686523	82.743902	4.150391	1779.000000	1816.080263	-0.879134
3.710937	70.743902	4.174805	1773.000000	1810.088932	-0.880826
3.735352	75.743902	4.199219	1917.000000	1804.196147	2.576398
3.759766	83.743902	4.223633	1778.000000	1798.252984	-0.480312
3.784180	91.743902	4.248047	1836.000000	1791.739815	1.032944
3.808594	68.743902	4.272461	1811.000000	1785.426323	0.600944
3.833008	79.743902	4.296875	1794.000000	1779.163174	0.350292
3.857422	97.743902	4.321289	1756.000000	1772.653117	-0.397405
3.881836	90.743902	4.345703	1719.000000	1765.872399	-1.130523
3.906250	94.743902	4.370117	1751.000000	1759.242934	-0.196988
3.930664	129.743902	4.394531	1815.000000	1752.962140	1.456192
3.955078	113.743902	4.418945	1791.000000	1746.236478	1.057734
3.979492	113.743902	4.443359	1749.000000	1739.736108	0.221513
4.003906	116.743902	4.467773	1706.000000	1733.088808	-0.655844
4.028320	104.743902	4.492187	1769.000000	1726.394188	1.012989
4.052734	92.743902	4.516602	1730.000000	1719.751456	0.246399
4.077148	82.743902	4.541016	1705.000000	1713.308926	-0.201225
4.101562	91.743902	4.565430	1736.000000	1706.743985	0.702167
4.125977	79.743902	4.589844	1673.000000	1700.255160	-0.666347
4.150391	60.743902	4.614258	1645.000000	1693.743127	-1.201795
4.174805	54.743902	4.638672	1690.000000	1687.356505	0.064304
4.199219	57.743902	4.663086	1632.000000	1680.847245	-1.209149
4.223633	54.743902	4.687500	1588.000000	1674.587153	-2.172842
4.248047	30.743902	4.711914	1687.000000	1668.253419	0.456420
4.272461	37.743902	4.736328	1674.000000	1661.945356	0.294630
4.296875	38.743902	4.760742	1684.000000	1655.390567	0.697169
4.321289	27.743902	4.785156	1572.000000	1649.159394	-1.946088
4.345703	15.743902	4.809570	1584.000000	1642.656428	-1.473798
4.370117	20.743902	4.833984	1571.000000	1636.254082	-1.646340
4.394531	33.743902	4.858398	1658.000000	1629.927194	0.689435
4.418945	14.743902	4.882812	1624.000000	1623.551688	0.011125
4.443359	22.743902	4.907227	1507.000000	1617.276284	-2.840701
4.467773	15.743902	4.931641	1612.000000	1611.100577	0.022402
4.492187	12.743902	4.956055	1537.000000	1604.776624	-1.728793
4.516602	13.743902	4.980469	1500.000000	1598.503057	-2.543338
4.541016	20.743902	5.004883	1540.000000	1592.279671	-1.332209
4.565430	14.743902	5.029297	1554.000000	1586.106263	-0.814450
4.589844	16.743902	5.053711	1578.000000	1579.933124	-0.048664
4.614258	14.743902	5.078125	1533.000000	1573.760250	-1.041036
4.638672	18.743902	5.102539	1534.000000	1567.736167	-0.861357
4.663086	12.743902	5.126953	1516.000000	1561.563222	-1.170213
4.687500	21.743902	5.151367	1504.000000	1555.415297	-1.325771
4.711914	17.743902	5.175781	1484.000000	1549.341798	-1.696189
4.736328	17.743902	5.200195	1471.000000	1543.342424	-1.886196
4.760742	6.743902	5.224609	1547.000000	1537.317859	0.246165
4.785156	18.743902	5.249023	1444.000000	1531.317712	-2.297835
4.809570	6.743902	5.273437	1486.000000	1525.539916	-1.025714
4.833984	9.743902	5.297852	1451.000000	1519.463737	-1.797326
4.858398	11.743902	5.322266	1499.000000	1513.511201	-0.374803
4.882812	8.743902	5.346680	1447.000000	1507.582792	-1.592630
4.907227	11.743902	5.371094	1456.000000	1501.925952	-1.203587
4.931641	14.743902	5.395508	1466.000000	1496.044499	-0.784690
4.956055	7.743902	5.419922	1491.000000	1490.261147	0.019135
4.980469	8.743902	5.444336	1455.000000	1484.253696	-0.766919
5.004883	9.743902	5.468750	1472.000000	1478.542888	-0.170536
5.029297	10.743902	5.493164	1409.000000	1472.681949	-1.696527
5.053711	9.743902	5.517578	1386.000000	1466.869519	-2.172217
5.078125	8.743902	5.541992	1438.000000	1461.006386	-0.606693
5.102539	13.743902	5.566406	1453.000000	1455.191771	-0.057499
5.126953	6.743902	5.590820	1395.000000	1449.400723	-1.456524
5.151367	6.743902	5.615234	1400.000000	1443.781672	-1.170114
5.175781	8.743902	5.639648	1449.000000	1438.036871	0.288005
5.200195	10.743902	5.664062	1428.000000	1432.290601	-0.113541
5.224609	8.743902	5.688477	1419.000000	1426.542867	-0.200237
5.249023	8.743902	5.712891	1443.000000	1420.917446	0.581321
5.273437	16.743902	5.737305	1411.000000	1415.191055	-0.111573
5.297852	3.743902	5.761719	1404.000000	1409.586891	-0.149103
5.322266	7.743902	5.786133	1324.000000	1404.079702	-2.200789
5.346680	7.743902	5.810547	1371.000000	1398.644343	-0.746599
5.371094	17.743902	5.834961	1348.000000	1393.181507	-1.230597
5.395508	7.743902	5.859375	1324.000000	1387.617042	-1.748354
5.419922	10.743902	5.883789	1364.000000	1382.124639	-0.490752
5.444336	0.743902	5.908203	1357.000000	1376.728759	-0.535562
5.468750	11.743902	5.932617	1339.000000	1371.181472	-0.879459
5.493164	4.743902	5.957031	1370.000000	1365.607161	0.118682
5.517578	5.743902	5.981445	1335.000000	1360.203967	-0.689808
5.541992	2.743902	6.005859	1327.000000	1354.698904	-0.760374
5.566406	3.743902	6.030273	1301.000000	1349.364676	-1.340879
5.590820	3.743902	6.054687	1271.000000	1344.175840	-2.052556
5.615234	9.743902	6.079102	1277.000000	1338.859510	-1.731056
5.639648	3.743902	6.103516	1276.000000	1333.638990	-1.613582
5.664062	2.743902	6.127930	1288.000000	1328.340614	-1.124047
5.688477	1.743902	6.152344	1312.000000	1323.088467	-0.306129
5.712891	5.743902	6.176758	1322.000000	1317.907116	0.112568
5.737305	0.743902	6.201172	1317.000000	1312.771519	0.116518
5.761719	4.743902	6.225586	1322.000000	1307.557722	0.397210
5.786133	7.743902	6.250000	1252.000000	1302.464073	-1.426199
5.810547	9.743902	6.274414	1296.000000	1297.242546	-0.034515
5.834961	7.743902	6.298828	1242.000000	1292.017428	-1.419255
5.859375	2.743902	6.323242	1311.000000	1286.862997	0.666626
5.883789	4.743902	6.347656	1284.000000	1281.877980	0.059220
5.908203	7.743902	6.372070	1224.000000	1276.764646	-1.508177
5.932617	0.743902	6.396484	1259.000000	1271.746298	-0.359229
5.957031	-1.256098	6.420898	1227.000000	1266.649274	-1.131913
5.981445	4.743902	6.445312	1183.000000	1261.622417	-2.285883
6.005859	-0.256098	6.469727	1229.000000	1256.615935	-0.787742
6.030273	5.743902	6.494141	1253.000000	1251.679253	0.037312
6.054687	10.743902	6.518555	1201.000000	1246.713072	-1.319073
6.079102	4.743902	6.542969	1250.000000	1241.674343	0.235485
6.103516	7.743902	6.567383	1198.000000	1236.656037	-1.116835
6.127930	3.743902	6.591797	1188.000000	1231.658071	-1.266649
6.152344	4.743902	6.616211	1114.000000	1226.680362	-3.376025
6.176758	6.743902	6.640625	1158.000000	1221.722829	-1.872582
6.201172	7.743902	6.665039	1217.000000	1216.785390	0.006152
6.225586	3.743902	6.689453	1191.000000	1211.867962	-0.604678
6.250000	7.743902	6.713867	1222.000000	1206.970466	0.429942
6.274414	1.743902	6.738281	1232.000000	1202.092820	0.852060
6.298828	0.743902	6.762695	1165.000000	1197.234944	-0.944417
6.323242	2.743902	6.787109	1175.000000	1192.396757	-0.507516
6.347656	8.743902	6.811523	1131.000000	1187.578181	-1.682355
6.372070	2.743902	6.835937	1182.000000	1182.779134	-0.022662
6.396484	5.743902	6.860352	1196.000000	1177.999539	0.520497
6.420898	1.743902	6.884766	1148.000000	1173.239317	-0.744915
6.445312	3.743902	6.909180	1149.000000	1168.498388	-0.575226
6.469727	3.743902	6.933594	1148.000000	1163.776675	-0.465634
6.494141	5.743902	6.958008	1122.000000	1159.074100	-1.106813
6.518555	3.743902	6.982422	1135.000000	1154.390585	-0.575563
7.006836	1147.000000	1149.726053	-0.080492
7.031250	1137.000000	1145.080427	-0.239637
7.055664	1215.000000	1140.453631	2.138643
7.080078	1127.000000	1135.845587	-0.263490
7.104492	1112.000000	1131.256221	-0.577456
7.128906	1095.000000	1126.685456	-0.957531
7.153320	1156.000000	1122.133217	0.996082
7.177734	1103.000000	1117.599429	-0.439590
7.202148	1089.000000	1113.084017	-0.729819
7.226562	1142.000000	1108.586907	0.988743
7.250977	1074.000000	1104.108024	-0.918714
7.275391	1142.000000	1099.647295	1.253280
7.299805	1068.000000	1095.204645	-0.832449
7.324219	1132.000000	1090.780003	1.225137
7.348633	1061.000000	1086.373294	-0.778967
7.373047	1035.000000	1081.984446	-1.460441
7.397461	1120.000000	1077.613387	1.266542
7.421875	1054.000000	1073.260044	-0.593249
7.446289	1062.000000	1068.924347	-0.212479
7.470703	1076.000000	1064.606222	0.347345
7.495117	1079.000000	1060.305599	0.569116
7.519531	1091.000000	1056.022408	1.058955
7.543945	1020.000000	1051.756577	-0.994337
7.568359	1090.000000	1047.508036	1.287044
7.592773	1064.000000	1043.276715	0.635313
7.617187	1012.000000	1039.062544	-0.850704
7.641602	1021.000000	1034.865453	-0.433932
7.666016	1054.000000	1030.685375	0.718138
7.690430	1056.000000	1026.522238	0.907115
7.714844	976.000000	1022.375976	-1.484459
7.739258	1036.000000	1018.246519	0.551574
7.763672	990.000000	1014.133799	-0.767022
7.788086	1057.000000	1010.037748	1.444480
7.812500	973.000000	1005.958300	-1.056595
7.836914	990.000000	1001.895386	-0.378060
7.861328	939.000000	997.848940	-1.920463
7.885742	1045.000000	993.818894	1.583257
7.910156	1045.000000	989.805183	1.707419
7.934570	1027.000000	985.807741	1.285377
7.958984	1065.000000	981.826500	2.548650
7.983398	1022.000000	977.861396	1.380680
8.007812	1041.000000	973.912363	2.079300
8.032227	958.000000	969.979336	-0.387035
8.056641	950.000000	966.062250	-0.521128
8.081055	1029.000000	962.161041	2.083637
8.105469	981.000000	958.275644	0.725533
8.129883	930.000000	954.405995	-0.800304
8.154297	996.000000	950.552030	1.440074
8.178711	897.000000	946.713686	-1.659892
8.203125	927.000000	942.890900	-0.521926
8.227539	925.000000	939.083607	-0.463066
8.251953	937.000000	935.291747	0.055806
8.276367	943.000000	931.515255	0.373995
8.300781	967.000000	927.754070	1.262064
8.325195	937.000000	924.008129	0.424426
8.349609	886.000000	920.277372	-1.151571
8.374023	870.000000	916.561735	-1.578591
8.398437	943.000000	912.861159	0.981456
8.422852	940.000000	909.175582	1.005382
8.447266	903.000000	905.504943	-0.083359
8.471680	854.000000	901.849181	-1.637365
8.496094	872.000000	898.208237	-0.887523
8.520508	918.000000	894.582050	0.772908
8.544922	865.000000	890.970561	-0.883026
8.569336	881.000000	887.373710	-0.214736
8.593750	856.000000	883.791437	-0.949892
8.618164	910.000000	880.223683	0.987075
8.642578	860.000000	876.670391	-0.568456
8.666992	869.000000	873.131500	-0.140152
8.691406	863.000000	869.606953	-0.224903
8.715820	888.000000	866.096691	0.735027
8.740234	856.000000	862.600657	-0.225606
8.764648	864.000000	859.118793	0.166062
8.789062	868.000000	855.651042	0.419151
8.813477	861.000000	852.197346	0.299994
8.837891	845.000000	848.757648	-0.129267
8.862305	888.000000	845.331891	1.431848
8.886719	812.000000	841.920020	-1.049987
8.911133	827.000000	838.521978	-0.400658
8.935547	847.000000	835.137708	0.407593
8.959961	883.000000	831.767156	1.724122
8.984375	801.000000	828.410265	-0.968494
9.008789	782.000000	825.066979	-1.540072
9.033203	820.000000	821.737245	-0.060667
9.057617	802.000000	818.421006	-0.579846
9.082031	789.000000	815.118209	-0.929833
9.106445	833.000000	811.828799	0.733539
9.130859	840.000000	808.552720	1.085034
9.155273	797.000000	805.289921	-0.293644
9.179687	832.000000	802.040346	1.038664
9.204102	795.000000	798.803942	-0.134912
9.228516	798.000000	795.580655	0.085644
9.252930	816.000000	792.370433	0.827200
9.277344	788.000000	789.173223	-0.041794
9.301758	751.000000	785.988971	-1.276766
9.326172	776.000000	782.817626	-0.244738
9.350586	797.000000	779.659134	0.614245
9.375000	772.000000	776.513444	-0.162442
9.399414	739.000000	773.380505	-1.264707
9.423828	779.000000	770.260263	0.313134
9.448242	744.000000	767.152669	-0.848818
9.472656	770.000000	764.057669	0.214147
9.497070	757.000000	760.975215	-0.144482
9.521484	731.000000	757.905254	-0.995127
9.545898	771.000000	754.847736	0.581710
9.570312	770.000000	751.802610	0.655788
9.594727	808.000000	748.769827	2.083710
9.619141	752.000000	745.749337	0.227938
9.643555	744.000000	742.741088	0.046154
9.667969	739.000000	739.745033	-0.027406
9.692383	743.000000	736.761121	0.228882
9.716797	758.000000	733.789304	0.879372
9.741211	722.000000	730.829531	-0.328601
9.765625	747.000000	727.881755	0.699500
9.790039	747.000000	724.945927	0.806916
9.814453	726.000000	722.021998	0.147638
9.838867	707.000000	719.109920	-0.455440
9.863281	744.000000	716.209645	1.018844
9.887695	728.000000	713.321126	0.544035
9.912109	699.000000	710.444314	-0.432864
9.936523	698.000000	707.579162	-0.362577
9.960937	723.000000	704.725623	0.679631
9.985352	672.000000	701.883650	-1.152787
10.009766	696.000000	699.053196	-0.115731
10.034180	710.000000	696.234215	0.516621
10.058594	725.000000	693.426658	1.172604
10.083008	704.000000	690.630482	0.503883
10.107422	714.000000	687.845639	0.978802
10.131836	738.000000	685.072083	1.948304
10.156250	712.000000	682.309768	1.112688
10.180664	677.000000	679.558650	-0.098337
10.205078	694.000000	676.818683	0.652194
10.229492	645.000000	674.089820	-1.145411
10.253906	672.000000	671.372019	0.024225
10.278320	675.000000	668.665233	0.243825
10.302734	658.000000	665.969418	-0.310680
10.327148	654.000000	663.284530	-0.363054
10.351562	687.000000	660.610524	1.006821
10.375977	660.000000	657.947356	0.079899
10.400391	711.000000	655.294982	2.089101
10.424805	687.000000	652.653359	1.310406
10.449219	662.000000	650.022442	0.465521
10.473633	658.000000	647.402189	0.413146
10.498047	639.000000	644.792557	-0.229150
10.522461	611.000000	642.193501	-1.261954
10.546875	604.000000	639.604980	-1.448746
10.571289	655.000000	637.026951	0.702265
10.595703	663.000000	634.459371	1.108426
10.620117	649.000000	631.902197	0.671147
10.644531	609.000000	629.355388	-0.824842
10.668945	641.000000	626.818902	0.560120
10.693359	622.000000	624.292697	-0.091929
10.717773	614.000000	621.776730	-0.313843
10.742187	611.000000	619.270961	-0.334607
10.766602	624.000000	616.775349	0.289218
10.791016	644.000000	614.289851	1.170744
10.815430	616.000000	611.814428	0.168642
10.839844	620.000000	609.349038	0.427753
10.864258	580.000000	606.893640	-1.116698
10.888672	637.000000	604.448195	1.289749
10.913086	602.000000	602.012661	-0.000516
10.937500	627.000000	599.586999	1.094770
10.961914	599.000000	597.171169	0.074724
10.986328	621.000000	594.765130	1.052769
11.010742	563.000000	592.368843	-1.237749
11.035156	567.000000	589.982269	-0.965165
11.059570	548.000000	587.605367	-1.691857
11.083984	577.000000	585.238100	-0.342957
11.108398	585.000000	582.880428	0.087634
11.132812	564.000000	580.532312	-0.696136
11.157227	532.000000	578.193713	-2.002751
11.181641	552.000000	575.864592	-1.015744
11.206055	610.000000	573.544912	1.476023
11.230469	590.000000	571.234634	0.772558
11.254883	562.000000	568.933720	-0.292481
11.279297	634.000000	566.642132	2.675123
11.303711	571.000000	564.359831	0.277882
11.328125	559.000000	562.086782	-0.130557
11.352539	532.000000	559.822945	-1.206278
11.376953	514.000000	557.568284	-1.921715
11.401367	568.000000	555.322762	0.531925
11.425781	579.000000	553.086341	1.076935
11.450195	551.000000	550.858984	0.006007
11.474609	492.000000	548.640656	-2.553558
11.499023	535.000000	546.431318	-0.494219
11.523437	558.000000	544.230936	0.582891
11.547852	551.000000	542.039471	0.381731
11.572266	577.000000	539.856890	1.546288
11.596680	547.000000	537.683154	0.398360
11.621094	547.000000	535.518229	0.490925
11.645508	551.000000	533.362079	0.751401
11.669922	477.000000	531.214668	-2.482319
11.694336	536.000000	529.075960	0.299073
11.718750	497.000000	526.945921	-1.343258
11.743164	511.000000	524.824516	-0.611561
11.767578	537.000000	522.711709	0.616585
11.791992	511.000000	520.607465	-0.425009
11.816406	496.000000	518.511751	-1.010807
11.840820	476.000000	516.424530	-1.852855
11.865234	486.000000	514.345769	-1.285790
11.889648	525.000000	512.275434	0.555346
11.914062	512.000000	510.213490	0.078953
11.938477	494.000000	508.159904	-0.637084
11.962891	486.000000	506.114641	-0.912419
11.987305	489.000000	504.077668	-0.681836
12.011719	493.000000	502.048951	-0.407544
12.036133	493.000000	500.028457	-0.316546
12.060547	525.000000	498.016152	1.177672
12.084961	528.000000	496.012003	1.392099
12.109375	466.000000	494.015977	-1.297815
12.133789	493.000000	492.028042	0.043775
12.158203	487.000000	490.048163	-0.138125
12.182617	470.000000	488.076310	-0.833798
12.207031	499.000000	486.112449	0.576926
12.231445	483.000000	484.156548	-0.052625
12.255859	497.000000	482.208574	0.663486
12.280273	515.000000	480.268496	1.530453
12.304687	480.000000	478.336281	0.075938
12.329102	478.000000	476.411897	0.072638
12.353516	482.000000	474.495314	0.341829
12.377930	466.000000	472.586498	-0.305114
12.402344	503.000000	470.685420	1.440836
12.426758	492.000000	468.792046	1.046295
12.451172	433.000000	466.906347	-1.629435
12.475586	500.000000	465.028291	1.563982
12.500000	453.000000	463.157847	-0.477257
12.524414	424.000000	461.294984	-1.811205
12.548828	455.000000	459.439672	-0.208135
12.573242	455.000000	457.591879	-0.121509
12.597656	446.000000	455.751576	-0.461751
12.622070	444.000000	453.918732	-0.470722
12.646484	443.000000	452.093316	-0.432036
12.670898	441.000000	450.275300	-0.441681
12.695312	421.000000	448.464652	-1.338545
12.719727	434.000000	446.661342	-0.607764
12.744141	455.000000	444.865342	0.475120
12.768555	428.000000	443.076622	-0.728756
12.792969	459.000000	441.295151	0.826392
12.817383	397.000000	439.520901	-2.134063
12.841797	404.000000	437.753842	-1.679316
12.866211	421.000000	435.993945	-0.730760
12.890625	384.000000	434.241182	-2.563860
12.915039	442.000000	432.495522	0.452082
12.939453	457.000000	430.756938	1.227599
12.963867	429.000000	429.025401	-0.001226
12.988281	408.000000	427.300882	-0.955536
13.012695	430.000000	425.583353	0.212990
13.037109	390.000000	423.872785	-1.715215
13.061523	408.000000	422.169150	-0.701477
13.085937	468.000000	420.472420	2.196963
13.110352	408.000000	418.782568	-0.533817
13.134766	405.000000	417.099565	-0.601232
13.159180	430.000000	415.423383	0.702947
13.183594	447.000000	413.753995	1.572482
13.208008	435.000000	412.091373	1.098385
13.232422	425.000000	410.435490	0.706483
13.256836	419.000000	408.786319	0.498971
13.281250	416.000000	407.143832	0.434209
13.305664	413.000000	405.508002	0.368657
13.330078	380.000000	403.878802	-1.224957
13.354492	387.000000	402.256206	-0.775517
13.378906	389.000000	400.640187	-0.590181
13.403320	365.000000	399.030717	-1.781249
13.427734	411.000000	397.427771	0.669469
13.452148	396.000000	395.831322	0.008476
13.476562	391.000000	394.241344	-0.163922
13.500977	417.000000	392.657809	1.192042
13.525391	372.000000	391.080694	-0.989288
13.549805	409.000000	389.509970	0.963720
13.574219	431.000000	387.945613	2.073857
13.598633	400.000000	386.387597	0.680620
13.623047	381.000000	384.835895	-0.196519
13.647461	421.000000	383.290482	1.837849
13.671875	360.000000	381.751334	-1.146396
13.696289	375.000000	380.218424	-0.269478
13.720703	387.000000	378.691727	0.422333
13.745117	338.000000	377.171217	-2.130633
13.769531	366.000000	375.656871	-0.504773
13.793945	363.000000	374.148663	-0.585153
13.818359	369.000000	372.646567	-0.189833
13.842773	343.000000	371.150560	-1.519987
13.867187	362.000000	369.660616	-0.402633
13.891602	420.000000	368.176712	2.528718
13.916016	358.000000	366.698821	-0.459747
13.940430	386.000000	365.226921	1.057322
13.964844	310.000000	363.760987	-3.053419
13.989258	372.000000	362.300994	0.502870
14.013672	380.000000	360.846919	0.982532
14.038086	373.000000	359.398738	0.704247
14.062500	390.000000	357.956426	1.622589
14.086914	360.000000	356.519960	0.183414
14.111328	354.000000	355.089316	-0.057897
14.135742	372.000000	353.664471	0.950653
14.160156	356.000000	352.245401	0.198993
14.184570	367.000000	350.832083	0.843958
14.208984	315.000000	349.424493	-1.939600
14.233398	381.000000	348.022608	1.689483
14.257812	319.000000	346.626406	-1.546782
14.282227	345.000000	345.235862	-0.012698
14.306641	346.000000	343.850954	0.115533
14.331055	325.000000	342.471660	-0.969153
14.355469	351.000000	341.097956	0.528532
14.379883	343.000000	339.729820	0.176573
14.404297	342.000000	338.367229	0.196438
14.428711	343.000000	337.010161	0.323421
14.453125	330.000000	335.658594	-0.311495
14.477539	355.000000	334.312504	1.097978
14.501953	319.000000	332.971871	-0.782275
14.526367	337.000000	331.636671	0.292159
14.550781	327.000000	330.306883	-0.182871
14.575195	326.000000	328.982485	-0.165185
14.599609	330.000000	327.663454	0.128623
14.624023	348.000000	326.349770	1.160574
14.648437	331.000000	325.041411	0.327514
14.672852	299.000000	323.738355	-1.430656
14.697266	304.000000	322.440580	-1.057640
14.721680	324.000000	321.148065	0.158441
14.746094	335.000000	319.860789	0.827143
14.770508	323.000000	318.578730	0.246006
14.794922	317.000000	317.301868	-0.016955
14.819336	329.000000	316.030181	0.715049
14.843750	309.000000	314.763648	-0.327882
14.868164	344.000000	313.502249	1.644329
14.892578	340.000000	312.245962	1.505174
14.916992	288.000000	310.994768	-1.354980
14.941406	308.000000	309.748645	-0.099638
14.965820	333.000000	308.507572	1.342177
14.990234	335.000000	307.271530	1.514968
15.014648	304.000000	306.040497	-0.117031
15.039062	295.000000	304.814454	-0.571420
15.063477	311.000000	303.593381	0.419991
15.087891	298.000000	302.377256	-0.253568
15.112305	259.000000	301.166061	-2.620072
15.136719	316.000000	299.959775	0.902333
15.161133	309.000000	298.758378	0.582626
15.185547	303.000000	297.561850	0.312414
15.209961	309.000000	296.370173	0.718486
15.234375	280.000000	295.183325	-0.907377
15.258789	280.000000	294.001288	-0.836737
15.283203	301.000000	292.824042	0.471254
15.307617	305.000000	291.651567	0.764329
15.332031	257.000000	290.483845	-2.088665
15.356445	332.000000	289.320855	2.342322
15.380859	285.000000	288.162579	-0.187335
15.405273	288.000000	287.008998	0.058395
15.429687	318.000000	285.860093	1.802316
15.454102	321.000000	284.715844	2.025184
15.478516	286.000000	283.576233	0.143320
15.502930	291.000000	282.441241	0.501723
15.527344	273.000000	281.310850	-0.502995
15.551758	286.000000	280.185040	0.343846
15.576172	296.000000	279.063793	0.984397
15.600586	290.000000	277.947090	0.707771
15.625000	296.000000	276.834914	1.113948
15.649414	291.000000	275.727246	0.895305
15.673828	265.000000	274.624067	-0.591202
15.698242	268.000000	273.525359	-0.337515
15.722656	263.000000	272.431105	-0.581547
15.747070	285.000000	271.341286	0.809072
15.771484	307.000000	270.255884	2.097097
15.795898	253.000000	269.174882	-1.016906
15.820312	266.000000	268.098261	-0.128653
15.844727	283.000000	267.026003	0.949556
15.869141	281.000000	265.958092	0.897325
15.893555	265.000000	264.894509	0.006480
15.917969	277.000000	263.835237	0.790994
15.942383	276.000000	262.780258	0.795735
15.966797	271.000000	261.729555	0.563139
15.991211	220.000000	260.683111	-2.742855
16.015625	266.000000	259.640908	0.389901
16.040039	280.000000	258.602930	1.278720
16.064453	234.000000	257.569159	-1.540764
16.088867	288.000000	256.539577	1.853823
16.113281	272.000000	255.514169	0.999600
16.137695	264.000000	254.492917	0.585121
16.162109	275.000000	253.475804	1.297958
16.186523	237.000000	252.462813	-1.004418
16.210937	268.000000	251.453929	1.010712
16.235352	239.000000	250.449133	-0.740583
16.259766	227.000000	249.448410	-1.489953
16.284180	272.000000	248.451744	1.427823
16.308594	274.000000	247.459116	1.603393
16.333008	242.000000	246.470512	-0.287375
16.357422	236.000000	245.485916	-0.617481
16.381836	252.000000	244.505309	0.472121
16.406250	235.000000	243.528678	-0.556350
16.430664	233.000000	242.556004	-0.626035
16.455078	235.000000	241.587274	-0.429706
16.479492	252.000000	240.622469	0.716717
16.503906	252.000000	239.661575	0.777248
16.528320	234.000000	238.704576	-0.307548
16.552734	230.000000	237.751456	-0.511116
16.577148	214.000000	236.802198	-1.558726
16.601562	216.000000	235.856788	-1.351083
16.625977	268.000000	234.915210	2.020975
16.650391	234.000000	233.977449	0.001474
16.674805	225.000000	233.043488	-0.536233
16.699219	266.000000	232.113313	2.077726
16.723633	221.000000	231.186908	-0.685246
16.748047	257.000000	230.264258	1.667730
16.772461	231.000000	229.345347	0.108868
16.796875	250.000000	228.430161	1.364196
16.821289	246.000000	227.518684	1.178326
16.845703	208.000000	226.610902	-1.290434
16.870117	228.000000	225.706799	0.151871
16.894531	230.000000	224.806361	0.342458
16.918945	231.000000	223.909572	0.466516
16.943359	236.000000	223.016418	0.845159
16.967773	246.000000	222.126884	1.522094
16.992187	226.000000	221.240955	0.316567
17.016602	219.000000	220.358617	-0.091807
17.041016	210.000000	219.479856	-0.654172
17.065430	246.000000	218.604656	1.746663
17.089844	223.000000	217.733003	0.352704
17.114258	215.000000	216.864884	-0.127184
17.138672	225.000000	216.000283	0.599981
17.163086	216.000000	215.139186	0.058571
17.187500	245.000000	214.281580	1.962528
17.211914	227.000000	213.427450	0.900842
17.236328	222.000000	212.576781	0.632445
17.260742	182.000000	211.729561	-2.203702
17.285156	209.000000	210.885774	-0.130442
17.309570	235.000000	210.045407	1.627858
17.333984	219.000000	209.208447	0.661652
17.358398	247.000000	208.374878	2.457658
17.382812	212.000000	207.544689	0.305992
17.407227	187.000000	206.717864	-1.441913
17.431641	200.000000	205.894390	-0.416796
17.456055	214.000000	205.074255	0.610151
17.480469	202.000000	204.257443	-0.158833
17.504883	214.000000	203.443942	0.721597
17.529297	202.000000	202.633738	-0.044590
17.553711	229.000000	201.826818	1.795654
17.578125	203.000000	201.023169	0.138746
17.602539	200.000000	200.222776	-0.015753
17.626953	198.000000	199.425629	-0.101315
17.651367	189.000000	198.631711	-0.700604
17.675781	216.000000	197.841012	1.235563
17.700195	202.000000	197.053518	0.348033
17.724609	201.000000	196.269216	0.333684
17.749023	197.000000	195.488092	0.107719
17.773437	210.000000	194.710134	1.055101
17.797852	210.000000	193.935330	1.108568
17.822266	214.000000	193.163666	1.424342
17.846680	211.000000	192.395130	1.280812
17.871094	207.000000	191.629708	1.068309
17.895508	214.000000	190.867389	1.581313
17.919922	198.000000	190.108160	0.560849
17.944336	217.000000	189.352008	1.876868
17.968750	176.000000	188.598921	-0.949679
17.993164	180.000000	187.848886	-0.585021
18.017578	170.000000	187.101891	-1.311655
18.041992	183.000000	186.357924	-0.248225
18.066406	202.000000	185.616973	1.152706
18.090820	189.000000	184.879024	0.299757
18.115234	186.000000	184.144067	0.136084
18.139648	165.000000	183.412088	-1.433379
18.164062	169.000000	182.683076	-1.052544
18.188477	187.000000	181.957019	0.368779
18.212891	185.000000	181.233905	0.276889
18.237305	172.000000	180.513722	-0.649165
18.261719	198.000000	179.796458	1.293669
18.286133	182.000000	179.082101	0.216289
18.310547	192.000000	178.370639	0.983614
18.334961	176.000000	177.662061	-0.125283
18.359375	192.000000	176.956355	1.085682
18.383789	164.000000	176.253509	-0.956838
18.408203	182.000000	175.553512	0.477845
18.432617	179.000000	174.856352	0.309711
18.457031	170.000000	174.162018	-0.319212
18.481445	168.000000	173.470499	-0.422058
18.505859	163.000000	172.781782	-0.766168
18.530273	162.000000	172.095856	-0.793205
18.554687	173.000000	171.412711	0.120679
18.579102	169.000000	170.732334	-0.133256
18.603516	163.000000	170.054715	-0.552568
18.627930	184.000000	169.379843	1.077812
18.652344	178.000000	168.707706	0.696487
18.676758	177.000000	168.038293	0.673603
18.701172	143.000000	167.371594	-2.038055
18.725586	148.000000	166.707596	-1.537755
18.750000	184.000000	166.046291	1.323565
18.774414	151.000000	165.387665	-1.170852
18.798828	167.000000	164.731709	0.175526
18.823242	167.000000	164.078411	0.226079
18.847656	173.000000	163.427762	0.727764
18.872070	159.000000	162.779750	-0.299754
18.896484	165.000000	162.134364	0.223089
18.920898	182.000000	161.491594	1.520184
18.945312	160.000000	160.851429	-0.067311
18.969727	170.000000	160.213859	0.750563
18.994141	161.000000	159.578873	0.112000
19.018555	147.000000	158.946461	-0.985327
19.042969	172.000000	158.316612	1.043349
19.067383	151.000000	157.689316	-0.544369
19.091797	173.000000	157.064562	1.211549
19.116211	152.000000	156.442341	-0.360321
19.140625	160.000000	155.822642	0.330249
19.165039	169.000000	155.205454	1.061119
19.189453	160.000000	154.590768	0.427637
19.213867	141.000000	153.978573	-1.092993
19.238281	150.000000	153.368860	-0.275066
19.262695	148.000000	152.761618	-0.391403
19.287109	179.000000	152.156837	2.006352
19.311523	170.000000	151.554508	1.414705
19.335937	176.000000	150.954619	1.887867
19.360352	137.000000	150.357162	-1.141179
19.384766	135.000000	149.762127	-1.270522
19.409180	132.000000	149.169504	-1.494413
19.433594	152.000000	148.579282	0.277457
19.458008	145.000000	147.991453	-0.248427
19.482422	138.000000	147.406006	-0.800692
19.506836	138.000000	146.822933	-0.751058
19.531250	154.000000	146.242222	0.625140
19.555664	148.000000	145.663865	0.192029
19.580078	160.000000	145.087853	1.178909
19.604492	142.000000	144.514175	-0.210985
19.628906	150.000000	143.942822	0.494566
19.653320	147.000000	143.373785	0.299085
19.677734	136.000000	142.807055	-0.583700
19.702148	162.000000	142.242621	1.552286
19.726562	139.000000	141.680475	-0.227355
19.750977	139.000000	141.120608	-0.179868
19.775391	153.000000	140.563010	1.005471
19.799805	149.000000	140.007672	0.736680
19.824219	145.000000	139.454585	0.460522
19.848633	140.000000	138.903739	0.092651
19.873047	142.000000	138.355126	0.305871
19.897461	144.000000	137.808737	0.515939
19.921875	149.000000	137.264563	0.961404
19.946289	150.000000	136.722594	1.084096
19.970703	152.000000	136.182821	1.282943
19.995117	163.000000	135.645237	2.142590
20.019531	137.000000	135.109831	0.161488
20.043945	114.000000	134.576596	-1.927175
20.068359	141.000000	134.045521	0.585673
20.092773	135.000000	133.516600	0.127671
20.117187	152.000000	132.989822	1.541929
20.141602	114.000000	132.465179	-1.729422
20.166016	125.000000	131.942663	-0.620971
20.190430	116.000000	131.422264	-1.431921
20.214844	128.000000	130.903975	-0.256678
20.239258	127.000000	130.387786	-0.300617
20.263672	123.000000	129.873690	-0.619780
20.288086	142.000000	129.361677	1.060584
20.312500	150.000000	128.851740	1.726748
20.336914	121.000000	128.343869	-0.667624
20.361328	116.000000	127.838057	-1.099136
20.385742	135.000000	127.334295	0.659759
20.410156	117.000000	126.832575	-0.909022
20.434570	119.000000	126.332888	-0.672205
20.458984	135.000000	125.835227	0.788778
20.483398	126.000000	125.339583	0.058835
20.507812	144.000000	124.845948	1.596171
20.532227	120.000000	124.354313	-0.397493
20.556641	120.000000	123.864671	-0.352795
20.581055	124.000000	123.377014	0.055946
20.605469	132.000000	122.891334	0.792808
20.629883	120.000000	122.407621	-0.219785
20.654297	139.000000	121.925870	1.448209
20.678711	129.000000	121.446071	0.665086
20.703125	127.000000	120.968217	0.535234
20.727539	129.000000	120.492299	0.749061
20.751953	130.000000	120.018311	0.875452
20.776367	110.000000	119.546243	-0.910199
20.800781	141.000000	119.076343	1.846305
20.825195	139.000000	118.606366	1.729765
20.849609	123.000000	118.137302	0.438455
20.874023	118.000000	117.671131	0.030275
20.898437	126.000000	117.206849	0.783356
20.922852	100.000000	116.747422	-1.674742
20.947266	120.000000	116.288865	0.338779
20.971680	140.000000	115.831177	2.042638
20.996094	118.000000	115.377325	0.241437
21.020508	112.000000	114.923331	-0.276229
21.044922	114.000000	114.474150	-0.044408
21.069336	108.000000	114.025799	-0.579833
21.093750	139.000000	113.576292	2.156411
21.118164	99.000000	113.127616	-1.419879
21.142578	114.000000	112.682741	0.123373
21.166992	118.000000	112.240659	0.530190
21.191406	119.000000	111.798388	0.660171
21.215820	119.000000	111.359891	0.700368
21.240234	111.000000	110.924162	0.007198
